File: LSV ZFO/ZFO_h400_dark_reator.DTA
EXPLAIN
TAG	LSV
TITLE	LABEL	Linear Sweep Voltammetry	Test &Identifier
DATE	LABEL	7/5/2024	Date
TIME	LABEL	17:27:26	Time
NOTES	NOTES	1	&Notes...

PSTAT	PSTAT	L3FNano	Potentiostat
VINIT	POTEN	-5.00000E-001	F	&Initial E (V)
VFINAL	POTEN	6.00000E-001	F	&Final E (V)
SCANRATE	QUANT	9.99998E+000	&Scan Rate (mV/s)
STEPSIZE	QUANT	1.00000E+000	St&ep Size (mV)
IMODE	SELECTOR	0	I/E Range &Mode
IRANGE	QUANT	1.00000E+001	&Max Current (mA)
AREA	QUANT	1.00000E+000	Electrode &Area (cm^2)
ELECTRODETYPE	SELECTOR	0	Electrode Type
STRIPPING	TOGGLE	F	Used for Stripping
POLARITY	TOGGLE	F	Signal Polarity
CONDIT	TWOPARAM	F	1.50000E+001	0.00000E+000	Conditionin&g	Time(s)	E(V)
DELAY	TWOPARAM	F	3.00000E+001	0.00000E+000	Init. De&lay	Time(s)	Stab.(mV/s)
EQDELAY	QUANT	5.00000E+000	Equil. &Time (s)
IRCOMP	SELECTOR	0	IRCom&p
PFCOR	QUANT	5.00000E+001	PF Corr. (ohm)
SAMPLINGMODE	SELECTOR	0	Sampling &Mode
EOC	QUANT	0	Open Circuit (V)
PSTATMODEL	IQUANT	48	Pstat Model
PSTATSECTION	LABEL	IFC1000-07082	Pstat Section
PSTATSERIALNO	LABEL	07082	Pstat Serial Number
CTRLMODE	IQUANT	1	Control Mode
IESTAB	IQUANT	2	I/E Stability
CASPEED	IQUANT	2	Control Amp Speed
CONVENTION	IQUANT	1	Current Convention
ICHRANGE	IQUANT	2	Ich Range
ICHRANGEMODE	TOGGLE	F	Ich Auto Range
ICHOFFSETENABLE	TOGGLE	F	Ich Offset Enable
ICHOFFSET	QUANT	0	Ich Offset (V)
ICHFILTER	IQUANT	3	Ich Filter
VCHRANGE	IQUANT	2	Vch Range
VCHRANGEMODE	TOGGLE	T	Vch Auto Range
VCHOFFSETENABLE	TOGGLE	F	Vch Offset Enable
VCHOFFSET	QUANT	0	Vch Offset (V)
VCHFILTER	IQUANT	3	Vch Filter
IERANGELOWERLIMIT	IQUANT	4	I/E Range Lower Limit
IERANGEMODE	TOGGLE	T	I/E AutoRange
IERANGE	IQUANT	11	I/E Range
ACHSELECT	IQUANT	4	Ach Select
CABLEID	IQUANT	14	Cable ID
DCCALDATE	LABEL	7/3/2024	DC Calibration Date
ACCALDATE	LABEL	7/3/2024	AC Calibration Date
FRAMEWORKVERSION	QUANT	6.24	Framework Version
INSTRUMENTVERSION	LABEL	3.28	Instrument Version
CURVE	TABLE	1101
	Pt	T	Vf	Im	Vu	Sig	Ach	IERange	Over	Cycle
	#	s	V vs. Ref.	A	V	V	V	#	bits	#
	0	0.1	-5.00210E-001	-2.13536E-005	0.00000E+000	-4.99988E-001	0.00000E+000	11	...........	0
	11	1.2	-4.89099E-001	-2.42464E-005	0.00000E+000	-4.88988E-001	0.00000E+000	8	...........	0
	22	2.3	-4.77988E-001	-2.19929E-005	0.00000E+000	-4.77988E-001	0.00000E+000	8	...........	0
	33	3.4	-4.67077E-001	-2.00961E-005	0.00000E+000	-4.66987E-001	0.00000E+000	8	...........	0
	44	4.5	-4.56166E-001	-1.73259E-005	0.00000E+000	-4.55987E-001	0.00000E+000	8	...........	0
	55	5.6	-4.45055E-001	-1.50824E-005	0.00000E+000	-4.44986E-001	0.00000E+000	8	...........	0
	66	6.7	-4.34144E-001	-1.36257E-005	0.00000E+000	-4.33986E-001	0.00000E+000	8	...........	0
	77	7.8	-4.23033E-001	-1.31290E-005	0.00000E+000	-4.22985E-001	0.00000E+000	8	...........	0
	88	8.9	-4.12022E-001	-1.22923E-005	0.00000E+000	-4.11985E-001	0.00000E+000	8	...........	0
	99	10	-4.01111E-001	-1.02421E-005	0.00000E+000	-4.00984E-001	0.00000E+000	8	...........	0
	110	11.1	-3.90100E-001	-9.24871E-006	0.00000E+000	-3.89984E-001	0.00000E+000	8	...........	0
	121	12.2	-3.78989E-001	-8.40198E-006	0.00000E+000	-3.78984E-001	0.00000E+000	8	...........	0
	132	13.3	-3.67878E-001	-6.98973E-006	0.00000E+000	-3.67983E-001	0.00000E+000	7	...........	0
	143	14.4	-3.56967E-001	-5.45064E-006	0.00000E+000	-3.56983E-001	0.00000E+000	7	...........	0
	154	15.5	-3.46056E-001	-4.60774E-006	0.00000E+000	-3.45982E-001	0.00000E+000	7	...........	0
	165	16.6	-3.35045E-001	-3.72616E-006	0.00000E+000	-3.34982E-001	0.00000E+000	7	...........	0
	176	17.7	-3.24034E-001	-3.09266E-006	0.00000E+000	-3.23981E-001	0.00000E+000	7	...........	0
	187	18.8	-3.13023E-001	-2.81691E-006	0.00000E+000	-3.12981E-001	0.00000E+000	7	...........	0
	198	19.9	-3.02013E-001	-2.16473E-006	0.00000E+000	-3.01980E-001	0.00000E+000	7	...........	0
	209	21	-2.91002E-001	-9.98080E-007	0.00000E+000	-2.90980E-001	0.00000E+000	7	...........	0
	220	22.1	-2.80091E-001	-6.72324E-007	0.00000E+000	-2.79979E-001	0.00000E+000	7	...........	0
	231	23.2	-2.68980E-001	-4.81938E-007	0.00000E+000	-2.68979E-001	0.00000E+000	7	...........	0
	242	24.3	-2.57969E-001	2.93608E-007	0.00000E+000	-2.57979E-001	0.00000E+000	7	...........	0
	253	25.4	-2.46958E-001	5.23338E-007	0.00000E+000	-2.46978E-001	0.00000E+000	7	...........	0
	264	26.5	-2.36017E-001	7.65071E-007	0.00000E+000	-2.35978E-001	0.00000E+000	7	...........	0
	275	27.6	-2.25036E-001	1.11683E-006	0.00000E+000	-2.24977E-001	0.00000E+000	7	...........	0
	286	28.7	-2.14025E-001	1.28588E-006	0.00000E+000	-2.13977E-001	0.00000E+000	7	...........	0
	297	29.8	-2.03024E-001	1.49927E-006	0.00000E+000	-2.02976E-001	0.00000E+000	7	...........	0
	308	30.9	-1.92034E-001	1.69133E-006	0.00000E+000	-1.91976E-001	0.00000E+000	7	...........	0
	319	32	-1.81023E-001	1.69533E-006	0.00000E+000	-1.80975E-001	0.00000E+000	7	...........	0
	330	33.1	-1.69982E-001	1.89371E-006	0.00000E+000	-1.69975E-001	0.00000E+000	7	...........	0
	341	34.2	-1.59071E-001	2.00241E-006	0.00000E+000	-1.59025E-001	0.00000E+000	7	...........	0
	352	35.3	-1.48100E-001	2.01475E-006	0.00000E+000	-1.48024E-001	0.00000E+000	7	...........	0
	363	36.4	-1.37069E-001	2.00608E-006	0.00000E+000	-1.37024E-001	0.00000E+000	7	...........	0
	374	37.5	-1.26108E-001	2.04542E-006	0.00000E+000	-1.26023E-001	0.00000E+000	7	...........	0
	385	38.6	-1.15087E-001	2.24614E-006	0.00000E+000	-1.15023E-001	0.00000E+000	7	...........	0
	396	39.7	-1.04086E-001	2.39552E-006	0.00000E+000	-1.04022E-001	0.00000E+000	7	...........	0
	407	40.8	-9.30950E-002	2.41152E-006	0.00000E+000	-9.30219E-002	0.00000E+000	7	...........	0
	418	41.9	-8.21241E-002	2.57423E-006	0.00000E+000	-8.20214E-002	0.00000E+000	7	...........	0
	429	43	-7.10931E-002	2.74595E-006	0.00000E+000	-7.10210E-002	0.00000E+000	7	...........	0
	440	44.1	-6.01523E-002	2.87999E-006	0.00000E+000	-6.00205E-002	0.00000E+000	7	...........	0
	451	45.2	-4.91513E-002	3.10671E-006	0.00000E+000	-4.90201E-002	0.00000E+000	7	...........	0
	462	46.3	-3.81003E-002	3.12605E-006	0.00000E+000	-3.80196E-002	0.00000E+000	7	...........	0
	473	47.4	-2.70693E-002	3.49249E-006	0.00000E+000	-2.70192E-002	0.00000E+000	7	...........	0
	484	48.5	-1.61032E-002	3.83825E-006	0.00000E+000	-1.60187E-002	0.00000E+000	7	...........	0
	495	49.6	-5.09822E-003	4.14533E-006	0.00000E+000	-5.01826E-003	0.00000E+000	7	...........	0
	506	50.7	5.90573E-003	4.30038E-006	0.00000E+000	5.98219E-003	0.00000E+000	7	...........	0
	517	51.8	1.68877E-002	4.85620E-006	0.00000E+000	1.69826E-002	0.00000E+000	7	...........	0
	528	52.9	2.78954E-002	5.19996E-006	0.00000E+000	2.79831E-002	0.00000E+000	7	...........	0
	539	54	3.89464E-002	5.45736E-006	0.00000E+000	3.89835E-002	0.00000E+000	7	...........	0
	550	55.1	4.98873E-002	5.94349E-006	0.00000E+000	4.99840E-002	0.00000E+000	7	...........	0
	561	56.2	6.09183E-002	6.33393E-006	0.00000E+000	6.09844E-002	0.00000E+000	7	...........	0
	572	57.3	7.19492E-002	6.77372E-006	0.00000E+000	7.19849E-002	0.00000E+000	7	...........	0
	583	58.4	8.29101E-002	7.25019E-006	0.00000E+000	8.29853E-002	0.00000E+000	7	.....h.....	0
	594	59.5	9.39311E-002	7.76666E-006	0.00000E+000	9.39858E-002	0.00000E+000	7	.....h.....	0
	605	60.6	1.04922E-001	7.91503E-006	0.00000E+000	1.04986E-001	0.00000E+000	7	.....h.....	0
	616	61.7	1.15923E-001	8.75827E-006	0.00000E+000	1.15987E-001	0.00000E+000	7	.....h.....	0
	627	62.8	1.26884E-001	8.28919E-006	0.00000E+000	1.26987E-001	0.00000E+000	8	...........	0
	638	63.9	1.37885E-001	8.96590E-006	0.00000E+000	1.37988E-001	0.00000E+000	8	...........	0
	649	65	1.48896E-001	9.96930E-006	0.00000E+000	1.48988E-001	0.00000E+000	8	...........	0
	660	66.1	1.59877E-001	1.06794E-005	0.00000E+000	1.59988E-001	0.00000E+000	8	...........	0
	671	67.2	1.70878E-001	1.08694E-005	0.00000E+000	1.70989E-001	0.00000E+000	8	...........	0
	682	68.3	1.81879E-001	1.11160E-005	0.00000E+000	1.81989E-001	0.00000E+000	8	...........	0
	693	69.4	1.92910E-001	1.14861E-005	0.00000E+000	1.92990E-001	0.00000E+000	8	...........	0
	704	70.5	2.03911E-001	1.20694E-005	0.00000E+000	2.03990E-001	0.00000E+000	8	...........	0
	715	71.6	2.14821E-001	1.20361E-005	0.00000E+000	2.14991E-001	0.00000E+000	8	...........	0
	726	72.7	2.25892E-001	1.21361E-005	0.00000E+000	2.25991E-001	0.00000E+000	8	...........	0
	737	73.8	2.36903E-001	1.24061E-005	0.00000E+000	2.36992E-001	0.00000E+000	8	...........	0
	748	74.9	2.47894E-001	1.28595E-005	0.00000E+000	2.47992E-001	0.00000E+000	8	...........	0
	759	76	2.58845E-001	1.34829E-005	0.00000E+000	2.58993E-001	0.00000E+000	8	...........	0
	770	77.1	2.70057E-001	1.40596E-005	0.00000E+000	2.69993E-001	0.00000E+000	8	...........	0
	781	78.2	2.81068E-001	1.40663E-005	0.00000E+000	2.80993E-001	0.00000E+000	8	...........	0
	792	79.3	2.92079E-001	1.41896E-005	0.00000E+000	2.91994E-001	0.00000E+000	8	...........	0
	803	80.4	3.03090E-001	1.40729E-005	0.00000E+000	3.02994E-001	0.00000E+000	8	...........	0
	814	81.5	3.14201E-001	1.39929E-005	0.00000E+000	3.13995E-001	0.00000E+000	8	...........	0
	825	82.6	3.25112E-001	1.49830E-005	0.00000E+000	3.24995E-001	0.00000E+000	8	...........	0
	836	83.7	3.36123E-001	1.47696E-005	0.00000E+000	3.35996E-001	0.00000E+000	8	...........	0
	847	84.8	3.47134E-001	1.51030E-005	0.00000E+000	3.46996E-001	0.00000E+000	8	...........	0
	858	85.9	3.58145E-001	1.52763E-005	0.00000E+000	3.57997E-001	0.00000E+000	8	...........	0
	869	87	3.69256E-001	1.55230E-005	0.00000E+000	3.68997E-001	0.00000E+000	8	...........	0
	880	88.1	3.80167E-001	1.58430E-005	0.00000E+000	3.79997E-001	0.00000E+000	8	...........	0
	891	89.2	3.91177E-001	1.56597E-005	0.00000E+000	3.90998E-001	0.00000E+000	8	...........	0
	902	90.3	4.02188E-001	1.59697E-005	0.00000E+000	4.01998E-001	0.00000E+000	8	...........	0
	913	91.4	4.13199E-001	1.62764E-005	0.00000E+000	4.12999E-001	0.00000E+000	8	...........	0
	924	92.5	4.24110E-001	1.68965E-005	0.00000E+000	4.23999E-001	0.00000E+000	8	...........	0
	935	93.6	4.35121E-001	1.75832E-005	0.00000E+000	4.35000E-001	0.00000E+000	8	...........	0
	946	94.7	4.46132E-001	1.83432E-005	0.00000E+000	4.46000E-001	0.00000E+000	8	...........	0
	957	95.8	4.57043E-001	1.92666E-005	0.00000E+000	4.57001E-001	0.00000E+000	8	...........	0
	968	96.9	4.68154E-001	1.99233E-005	0.00000E+000	4.68001E-001	0.00000E+000	8	...........	0
	979	98	4.79165E-001	2.06034E-005	0.00000E+000	4.79002E-001	0.00000E+000	8	...........	0
	990	99.1	4.90276E-001	2.11368E-005	0.00000E+000	4.90002E-001	0.00000E+000	8	...........	0
	1001	100.2	5.01187E-001	2.34736E-005	0.00000E+000	5.01002E-001	0.00000E+000	8	...........	0
	1012	101.3	5.12098E-001	2.41970E-005	0.00000E+000	5.12003E-001	0.00000E+000	8	...........	0
	1023	102.4	5.23109E-001	2.50070E-005	0.00000E+000	5.23003E-001	0.00000E+000	8	...........	0
	1034	103.5	5.34220E-001	2.74139E-005	0.00000E+000	5.34004E-001	0.00000E+000	8	...........	0
	1045	104.6	5.45231E-001	2.83139E-005	0.00000E+000	5.45004E-001	0.00000E+000	8	...........	0
	1056	105.7	5.56142E-001	3.01274E-005	0.00000E+000	5.56005E-001	0.00000E+000	8	...........	0
	1067	106.8	5.67153E-001	3.38610E-005	0.00000E+000	5.67005E-001	0.00000E+000	8	...........	0
	1078	107.9	5.78264E-001	3.64312E-005	0.00000E+000	5.78006E-001	0.00000E+000	8	...........	0
	1089	109	5.89275E-001	4.02481E-005	0.00000E+000	5.89006E-001	0.00000E+000	8	...........	0
	1100	110.1	6.00186E-001	4.44550E-005	0.00000E+000	6.00006E-001	0.00000E+000	8	...........	0