File: LSV ZFO/ZFO_dark_reator2.DTA
EXPLAIN
TAG	LSV
TITLE	LABEL	Linear Sweep Voltammetry	Test &Identifier
DATE	LABEL	7/5/2024	Date
TIME	LABEL	18:26:44	Time
NOTES	NOTES	1	&Notes...

PSTAT	PSTAT	L3FNano	Potentiostat
VINIT	POTEN	-5.00000E-001	F	&Initial E (V)
VFINAL	POTEN	6.00000E-001	F	&Final E (V)
SCANRATE	QUANT	9.99998E+000	&Scan Rate (mV/s)
STEPSIZE	QUANT	1.00000E+000	St&ep Size (mV)
IMODE	SELECTOR	0	I/E Range &Mode
IRANGE	QUANT	1.00000E+001	&Max Current (mA)
AREA	QUANT	1.00000E+000	Electrode &Area (cm^2)
ELECTRODETYPE	SELECTOR	0	Electrode Type
STRIPPING	TOGGLE	F	Used for Stripping
POLARITY	TOGGLE	F	Signal Polarity
CONDIT	TWOPARAM	F	1.50000E+001	0.00000E+000	Conditionin&g	Time(s)	E(V)
DELAY	TWOPARAM	F	3.00000E+001	0.00000E+000	Init. De&lay	Time(s)	Stab.(mV/s)
EQDELAY	QUANT	5.00000E+000	Equil. &Time (s)
IRCOMP	SELECTOR	0	IRCom&p
PFCOR	QUANT	5.00000E+001	PF Corr. (ohm)
SAMPLINGMODE	SELECTOR	0	Sampling &Mode
EOC	QUANT	0	Open Circuit (V)
PSTATMODEL	IQUANT	48	Pstat Model
PSTATSECTION	LABEL	IFC1000-07082	Pstat Section
PSTATSERIALNO	LABEL	07082	Pstat Serial Number
CTRLMODE	IQUANT	1	Control Mode
IESTAB	IQUANT	2	I/E Stability
CASPEED	IQUANT	2	Control Amp Speed
CONVENTION	IQUANT	1	Current Convention
ICHRANGE	IQUANT	2	Ich Range
ICHRANGEMODE	TOGGLE	F	Ich Auto Range
ICHOFFSETENABLE	TOGGLE	F	Ich Offset Enable
ICHOFFSET	QUANT	0	Ich Offset (V)
ICHFILTER	IQUANT	3	Ich Filter
VCHRANGE	IQUANT	2	Vch Range
VCHRANGEMODE	TOGGLE	T	Vch Auto Range
VCHOFFSETENABLE	TOGGLE	F	Vch Offset Enable
VCHOFFSET	QUANT	0	Vch Offset (V)
VCHFILTER	IQUANT	3	Vch Filter
IERANGELOWERLIMIT	IQUANT	4	I/E Range Lower Limit
IERANGEMODE	TOGGLE	T	I/E AutoRange
IERANGE	IQUANT	11	I/E Range
ACHSELECT	IQUANT	4	Ach Select
CABLEID	IQUANT	14	Cable ID
DCCALDATE	LABEL	7/3/2024	DC Calibration Date
ACCALDATE	LABEL	7/3/2024	AC Calibration Date
FRAMEWORKVERSION	QUANT	6.24	Framework Version
INSTRUMENTVERSION	LABEL	3.28	Instrument Version
EXPERIMENTABORTED	TOGGLE	T	Experiment Aborted
CURVE	TABLE	771
	Pt	T	Vf	Im	Vu	Sig	Ach	IERange	Over	Cycle
	#	s	V vs. Ref.	A	V	V	V	#	bits	#
	0	0.1	-5.00110E-001	1.93704E-006	0.00000E+000	-4.99988E-001	0.00000E+000	11	...........	0
	8	0.9	-4.92102E-001	-2.14673E-006	0.00000E+000	-4.91988E-001	0.00000E+000	7	...........	0
	16	1.7	-4.84094E-001	-1.81264E-006	0.00000E+000	-4.83988E-001	0.00000E+000	7	...........	0
	24	2.5	-4.76086E-001	-1.54823E-006	0.00000E+000	-4.75987E-001	0.00000E+000	7	...........	0
	32	3.3	-4.67978E-001	-1.34618E-006	0.00000E+000	-4.67987E-001	0.00000E+000	7	...........	0
	40	4.1	-4.60070E-001	-1.23615E-006	0.00000E+000	-4.59987E-001	0.00000E+000	7	...........	0
	48	4.9	-4.52162E-001	-1.26682E-006	0.00000E+000	-4.51987E-001	0.00000E+000	7	...........	0
	56	5.7	-4.44054E-001	-1.07310E-006	0.00000E+000	-4.43986E-001	0.00000E+000	7	...........	0
	64	6.5	-4.36046E-001	-9.50400E-007	0.00000E+000	-4.35986E-001	0.00000E+000	7	...........	0
	72	7.3	-4.28038E-001	-7.00665E-007	0.00000E+000	-4.27986E-001	0.00000E+000	7	...........	0
	80	8.1	-4.19930E-001	-6.48984E-007	0.00000E+000	-4.19985E-001	0.00000E+000	7	...........	0
	88	8.9	-4.12022E-001	-7.49679E-007	0.00000E+000	-4.11985E-001	0.00000E+000	7	...........	0
	96	9.7	-4.04014E-001	-7.91690E-007	0.00000E+000	-4.03985E-001	0.00000E+000	7	...........	0
	104	10.5	-3.96006E-001	-6.77992E-007	0.00000E+000	-3.95984E-001	0.00000E+000	7	...........	0
	112	11.3	-3.87998E-001	-6.39982E-007	0.00000E+000	-3.87984E-001	0.00000E+000	7	...........	0
	120	12.1	-3.80090E-001	-5.70629E-007	0.00000E+000	-3.79984E-001	0.00000E+000	7	...........	0
	128	12.9	-3.72182E-001	-4.94942E-007	0.00000E+000	-3.71983E-001	0.00000E+000	7	...........	0
	136	13.7	-3.63974E-001	-4.68935E-007	0.00000E+000	-3.63983E-001	0.00000E+000	7	...........	0
	144	14.5	-3.55966E-001	-2.95220E-007	0.00000E+000	-3.55983E-001	0.00000E+000	7	...........	0
	152	15.3	-3.48058E-001	-3.13559E-007	0.00000E+000	-3.47982E-001	0.00000E+000	7	...........	0
	160	16.1	-3.40050E-001	-2.02862E-007	0.00000E+000	-3.39982E-001	0.00000E+000	7	...........	0
	168	16.9	-3.31942E-001	-2.80550E-007	0.00000E+000	-3.31982E-001	0.00000E+000	7	...........	0
	176	17.7	-3.23934E-001	-3.67574E-007	0.00000E+000	-3.23981E-001	0.00000E+000	7	...........	0
	184	18.5	-3.16026E-001	-3.93914E-007	0.00000E+000	-3.15981E-001	0.00000E+000	7	...........	0
	192	19.3	-3.08018E-001	-4.26256E-007	0.00000E+000	-3.07981E-001	0.00000E+000	7	...........	0
	200	20.1	-3.00011E-001	-4.61599E-007	0.00000E+000	-2.99980E-001	0.00000E+000	7	...........	0
	208	20.9	-2.92103E-001	-4.58932E-007	0.00000E+000	-2.91980E-001	0.00000E+000	7	...........	0
	216	21.7	-2.84095E-001	-4.90941E-007	0.00000E+000	-2.83980E-001	0.00000E+000	7	...........	0
	224	22.5	-2.75987E-001	-3.55237E-007	0.00000E+000	-2.75979E-001	0.00000E+000	7	...........	0
	232	23.3	-2.67979E-001	-2.16532E-007	0.00000E+000	-2.67979E-001	0.00000E+000	7	...........	0
	240	24.1	-2.59971E-001	-5.54878E-008	0.00000E+000	-2.59979E-001	0.00000E+000	7	...........	0
	248	24.9	-2.51963E-001	-3.80699E-009	0.00000E+000	-2.51978E-001	0.00000E+000	7	...........	0
	256	25.7	-2.44055E-001	-5.81553E-008	0.00000E+000	-2.43978E-001	0.00000E+000	7	...........	0
	264	26.5	-2.35987E-001	2.95355E-008	0.00000E+000	-2.35978E-001	0.00000E+000	7	...........	0
	272	27.3	-2.27979E-001	-2.61465E-008	0.00000E+000	-2.27977E-001	0.00000E+000	7	...........	0
	280	28.1	-2.19981E-001	2.15333E-008	0.00000E+000	-2.19977E-001	0.00000E+000	7	...........	0
	288	28.9	-2.11933E-001	8.19631E-009	0.00000E+000	-2.11977E-001	0.00000E+000	7	...........	0
	296	29.7	-2.03975E-001	5.86234E-009	0.00000E+000	-2.03976E-001	0.00000E+000	7	...........	0
	304	30.5	-1.95947E-001	5.28753E-008	0.00000E+000	-1.95976E-001	0.00000E+000	7	...........	0
	312	31.3	-1.88000E-001	1.56904E-007	0.00000E+000	-1.87976E-001	0.00000E+000	7	...........	0
	320	32.1	-1.80012E-001	3.18281E-007	0.00000E+000	-1.79975E-001	0.00000E+000	7	...........	0
	328	32.9	-1.71984E-001	4.00637E-007	0.00000E+000	-1.71975E-001	0.00000E+000	7	...........	0
	336	33.7	-1.64026E-001	4.50985E-007	0.00000E+000	-1.64025E-001	0.00000E+000	7	...........	0
	344	34.5	-1.56008E-001	4.79659E-007	0.00000E+000	-1.56024E-001	0.00000E+000	7	...........	0
	352	35.3	-1.48050E-001	4.08306E-007	0.00000E+000	-1.48024E-001	0.00000E+000	7	...........	0
	360	36.1	-1.40012E-001	3.72296E-007	0.00000E+000	-1.40024E-001	0.00000E+000	7	...........	0
	368	36.9	-1.32074E-001	3.12613E-007	0.00000E+000	-1.32023E-001	0.00000E+000	7	...........	0
	376	37.7	-1.24066E-001	4.12641E-007	0.00000E+000	-1.24023E-001	0.00000E+000	7	...........	0
	384	38.5	-1.16098E-001	4.54652E-007	0.00000E+000	-1.16023E-001	0.00000E+000	7	...........	0
	392	39.3	-1.08110E-001	5.63349E-007	0.00000E+000	-1.08022E-001	0.00000E+000	7	...........	0
	400	40.1	-1.00092E-001	6.47372E-007	0.00000E+000	-1.00022E-001	0.00000E+000	7	...........	0
	408	40.9	-9.20640E-002	7.54401E-007	0.00000E+000	-9.20218E-002	0.00000E+000	7	...........	0
	416	41.7	-8.40761E-002	8.48760E-007	0.00000E+000	-8.40215E-002	0.00000E+000	7	...........	0
	424	42.5	-7.60681E-002	8.76768E-007	0.00000E+000	-7.60211E-002	0.00000E+000	7	...........	0
	432	43.3	-6.80902E-002	9.17780E-007	0.00000E+000	-6.80208E-002	0.00000E+000	7	...........	0
	440	44.1	-6.00922E-002	9.39452E-007	0.00000E+000	-6.00205E-002	0.00000E+000	7	...........	0
	448	44.9	-5.20342E-002	8.67432E-007	0.00000E+000	-5.20202E-002	0.00000E+000	7	...........	0
	456	45.7	-4.40462E-002	9.53123E-007	0.00000E+000	-4.40199E-002	0.00000E+000	7	...........	0
	464	46.5	-3.60883E-002	9.37785E-007	0.00000E+000	-3.60195E-002	0.00000E+000	7	...........	0
	472	47.3	-2.80403E-002	1.01981E-006	0.00000E+000	-2.80192E-002	0.00000E+000	7	...........	0
	480	48.1	-2.00121E-002	1.04815E-006	0.00000E+000	-2.00189E-002	0.00000E+000	7	...........	0
	488	48.9	-1.20271E-002	1.03548E-006	0.00000E+000	-1.20185E-002	0.00000E+000	7	...........	0
	496	49.7	-4.06119E-003	1.04748E-006	0.00000E+000	-4.01822E-003	0.00000E+000	7	...........	0
	504	50.5	3.94378E-003	1.10983E-006	0.00000E+000	3.98211E-003	0.00000E+000	7	...........	0
	512	51.3	1.19327E-002	1.09383E-006	0.00000E+000	1.19824E-002	0.00000E+000	7	...........	0
	520	52.1	1.99267E-002	1.16818E-006	0.00000E+000	1.99828E-002	0.00000E+000	7	...........	0
	528	52.9	2.79955E-002	1.26454E-006	0.00000E+000	2.79831E-002	0.00000E+000	7	...........	0
	536	53.7	3.59434E-002	1.36557E-006	0.00000E+000	3.59834E-002	0.00000E+000	7	...........	0
	544	54.5	4.39514E-002	1.43292E-006	0.00000E+000	4.39837E-002	0.00000E+000	7	...........	0
	552	55.3	5.19393E-002	1.56963E-006	0.00000E+000	5.19841E-002	0.00000E+000	7	...........	0
	560	56.1	5.99373E-002	1.66865E-006	0.00000E+000	5.99844E-002	0.00000E+000	7	...........	0
	568	56.9	6.79553E-002	1.69433E-006	0.00000E+000	6.79847E-002	0.00000E+000	7	...........	0
	576	57.7	7.60333E-002	1.68366E-006	0.00000E+000	7.59851E-002	0.00000E+000	7	...........	0
	584	58.5	8.40012E-002	1.59963E-006	0.00000E+000	8.39854E-002	0.00000E+000	7	...........	0
	592	59.3	9.19391E-002	1.53795E-006	0.00000E+000	9.19857E-002	0.00000E+000	7	...........	0
	600	60.1	9.99571E-002	1.52328E-006	0.00000E+000	9.99860E-002	0.00000E+000	7	...........	0
	608	60.9	1.07955E-001	1.57063E-006	0.00000E+000	1.07986E-001	0.00000E+000	7	...........	0
	616	61.7	1.15903E-001	1.67199E-006	0.00000E+000	1.15987E-001	0.00000E+000	7	...........	0
	624	62.5	1.23951E-001	1.80936E-006	0.00000E+000	1.23987E-001	0.00000E+000	7	...........	0
	632	63.3	1.31889E-001	1.86104E-006	0.00000E+000	1.31987E-001	0.00000E+000	7	...........	0
	640	64.1	1.39947E-001	1.95306E-006	0.00000E+000	1.39988E-001	0.00000E+000	7	...........	0
	648	64.9	1.47945E-001	1.95140E-006	0.00000E+000	1.47988E-001	0.00000E+000	7	...........	0
	656	65.7	1.55973E-001	1.99207E-006	0.00000E+000	1.55988E-001	0.00000E+000	7	...........	0
	664	66.5	1.63941E-001	1.97440E-006	0.00000E+000	1.63989E-001	0.00000E+000	7	...........	0
	672	67.3	1.71949E-001	1.89105E-006	0.00000E+000	1.71989E-001	0.00000E+000	7	...........	0
	680	68.1	1.79937E-001	1.87604E-006	0.00000E+000	1.79989E-001	0.00000E+000	7	...........	0
	688	68.9	1.87925E-001	1.88338E-006	0.00000E+000	1.87990E-001	0.00000E+000	7	...........	0
	696	69.7	1.95923E-001	1.86937E-006	0.00000E+000	1.95990E-001	0.00000E+000	7	...........	0
	704	70.5	2.03921E-001	1.93439E-006	0.00000E+000	2.03990E-001	0.00000E+000	7	...........	0
	712	71.3	2.11909E-001	2.07176E-006	0.00000E+000	2.11991E-001	0.00000E+000	7	...........	0
	720	72.1	2.19886E-001	2.17379E-006	0.00000E+000	2.19991E-001	0.00000E+000	7	...........	0
	728	72.9	2.27904E-001	2.24981E-006	0.00000E+000	2.27991E-001	0.00000E+000	7	...........	0
	736	73.7	2.35912E-001	2.23914E-006	0.00000E+000	2.35992E-001	0.00000E+000	7	...........	0
	744	74.5	2.43920E-001	2.13845E-006	0.00000E+000	2.43992E-001	0.00000E+000	7	...........	0
	752	75.3	2.51948E-001	2.06810E-006	0.00000E+000	2.51992E-001	0.00000E+000	7	...........	0
	760	76.1	2.59886E-001	2.09644E-006	0.00000E+000	2.59993E-001	0.00000E+000	7	...........	0
	768	76.9	2.68055E-001	2.19046E-006	0.00000E+000	2.67993E-001	0.00000E+000	7	...........	0
	770	77.1	2.70157E-001	2.18379E-006	0.00000E+000	2.69993E-001	0.00000E+000	7	...........	0