File: LSV ZFO/ZFO_dark.DTA
EXPLAIN
TAG	LSV
TITLE	LABEL	Linear Sweep Voltammetry	Test &Identifier
DATE	LABEL	7/5/2024	Date
TIME	LABEL	15:00:03	Time
NOTES	NOTES	1	&Notes...

PSTAT	PSTAT	L3FNano	Potentiostat
VINIT	POTEN	-5.00000E-001	F	&Initial E (V)
VFINAL	POTEN	6.00000E-001	F	&Final E (V)
SCANRATE	QUANT	9.99998E+000	&Scan Rate (mV/s)
STEPSIZE	QUANT	1.00000E+000	St&ep Size (mV)
IMODE	SELECTOR	0	I/E Range &Mode
IRANGE	QUANT	1.00000E+001	&Max Current (mA)
AREA	QUANT	1.00000E+000	Electrode &Area (cm^2)
ELECTRODETYPE	SELECTOR	0	Electrode Type
STRIPPING	TOGGLE	F	Used for Stripping
POLARITY	TOGGLE	F	Signal Polarity
CONDIT	TWOPARAM	F	1.50000E+001	0.00000E+000	Conditionin&g	Time(s)	E(V)
DELAY	TWOPARAM	F	3.00000E+001	0.00000E+000	Init. De&lay	Time(s)	Stab.(mV/s)
EQDELAY	QUANT	5.00000E+000	Equil. &Time (s)
IRCOMP	SELECTOR	0	IRCom&p
PFCOR	QUANT	5.00000E+001	PF Corr. (ohm)
SAMPLINGMODE	SELECTOR	0	Sampling &Mode
EOC	QUANT	0	Open Circuit (V)
PSTATMODEL	IQUANT	48	Pstat Model
PSTATSECTION	LABEL	IFC1000-07082	Pstat Section
PSTATSERIALNO	LABEL	07082	Pstat Serial Number
CTRLMODE	IQUANT	1	Control Mode
IESTAB	IQUANT	2	I/E Stability
CASPEED	IQUANT	2	Control Amp Speed
CONVENTION	IQUANT	1	Current Convention
ICHRANGE	IQUANT	2	Ich Range
ICHRANGEMODE	TOGGLE	F	Ich Auto Range
ICHOFFSETENABLE	TOGGLE	F	Ich Offset Enable
ICHOFFSET	QUANT	0	Ich Offset (V)
ICHFILTER	IQUANT	3	Ich Filter
VCHRANGE	IQUANT	2	Vch Range
VCHRANGEMODE	TOGGLE	T	Vch Auto Range
VCHOFFSETENABLE	TOGGLE	F	Vch Offset Enable
VCHOFFSET	QUANT	0	Vch Offset (V)
VCHFILTER	IQUANT	3	Vch Filter
IERANGELOWERLIMIT	IQUANT	4	I/E Range Lower Limit
IERANGEMODE	TOGGLE	T	I/E AutoRange
IERANGE	IQUANT	11	I/E Range
ACHSELECT	IQUANT	4	Ach Select
CABLEID	IQUANT	14	Cable ID
DCCALDATE	LABEL	7/3/2024	DC Calibration Date
ACCALDATE	LABEL	7/3/2024	AC Calibration Date
FRAMEWORKVERSION	QUANT	6.24	Framework Version
INSTRUMENTVERSION	LABEL	3.28	Instrument Version
CURVE	TABLE	1101
	Pt	T	Vf	Im	Vu	Sig	Ach	IERange	Over	Cycle
	#	s	V vs. Ref.	A	V	V	V	#	bits	#
	0	0.1	-4.99909E-001	5.26427E-006	0.00000E+000	-4.99988E-001	0.00000E+000	11	...........	0
	11	1.2	-4.88999E-001	-1.28182E-006	0.00000E+000	-4.88988E-001	0.00000E+000	7	...........	0
	22	2.3	-4.77988E-001	-9.46066E-007	0.00000E+000	-4.77988E-001	0.00000E+000	7	...........	0
	33	3.4	-4.66877E-001	-6.76992E-007	0.00000E+000	-4.66987E-001	0.00000E+000	7	...........	0
	44	4.5	-4.55966E-001	-5.16281E-007	0.00000E+000	-4.55987E-001	0.00000E+000	7	...........	0
	55	5.6	-4.44955E-001	-2.67880E-007	0.00000E+000	-4.44986E-001	0.00000E+000	7	...........	0
	66	6.7	-4.33944E-001	-2.63212E-007	0.00000E+000	-4.33986E-001	0.00000E+000	7	...........	0
	77	7.8	-4.22933E-001	-1.51181E-007	0.00000E+000	-4.22985E-001	0.00000E+000	7	...........	0
	88	8.9	-4.12022E-001	-4.94862E-008	0.00000E+000	-4.11985E-001	0.00000E+000	7	...........	0
	99	10	-4.00911E-001	-3.44821E-008	0.00000E+000	-4.00984E-001	0.00000E+000	7	...........	0
	110	11.1	-3.89900E-001	1.71988E-008	0.00000E+000	-3.89984E-001	0.00000E+000	7	...........	0
	121	12.2	-3.78889E-001	1.06890E-007	0.00000E+000	-3.78984E-001	0.00000E+000	7	...........	0
	132	13.3	-3.67878E-001	7.85490E-008	0.00000E+000	-3.67983E-001	0.00000E+000	7	...........	0
	143	14.4	-3.56867E-001	-3.47356E-009	0.00000E+000	-3.56983E-001	0.00000E+000	7	...........	0
	154	15.5	-3.45856E-001	1.77910E-007	0.00000E+000	-3.45982E-001	0.00000E+000	7	...........	0
	165	16.6	-3.34845E-001	7.48813E-008	0.00000E+000	-3.34982E-001	0.00000E+000	7	...........	0
	176	17.7	-3.23934E-001	2.07584E-007	0.00000E+000	-3.23981E-001	0.00000E+000	7	...........	0
	187	18.8	-3.12923E-001	1.92914E-007	0.00000E+000	-3.12981E-001	0.00000E+000	7	...........	0
	198	19.9	-3.01912E-001	1.55570E-007	0.00000E+000	-3.01980E-001	0.00000E+000	7	...........	0
	209	21	-2.90901E-001	5.98772E-008	0.00000E+000	-2.90980E-001	0.00000E+000	7	...........	0
	220	22.1	-2.79991E-001	1.05890E-007	0.00000E+000	-2.79979E-001	0.00000E+000	7	...........	0
	231	23.2	-2.68880E-001	1.26896E-007	0.00000E+000	-2.68979E-001	0.00000E+000	7	...........	0
	242	24.3	-2.57869E-001	2.47262E-007	0.00000E+000	-2.57979E-001	0.00000E+000	7	...........	0
	253	25.4	-2.46858E-001	2.09918E-007	0.00000E+000	-2.46978E-001	0.00000E+000	7	...........	0
	264	26.5	-2.36027E-001	7.45479E-008	0.00000E+000	-2.35978E-001	0.00000E+000	7	...........	0
	275	27.6	-2.25016E-001	1.15226E-007	0.00000E+000	-2.24977E-001	0.00000E+000	7	...........	0
	286	28.7	-2.14035E-001	8.98854E-008	0.00000E+000	-2.13977E-001	0.00000E+000	7	...........	0
	297	29.8	-2.03045E-001	1.81911E-007	0.00000E+000	-2.02976E-001	0.00000E+000	7	...........	0
	308	30.9	-1.92014E-001	1.81577E-007	0.00000E+000	-1.91976E-001	0.00000E+000	7	...........	0
	319	32	-1.81013E-001	1.80577E-007	0.00000E+000	-1.80975E-001	0.00000E+000	7	...........	0
	330	33.1	-1.70022E-001	1.99249E-007	0.00000E+000	-1.69975E-001	0.00000E+000	7	...........	0
	341	34.2	-1.59081E-001	1.73242E-007	0.00000E+000	-1.59025E-001	0.00000E+000	7	...........	0
	352	35.3	-1.48110E-001	1.39232E-007	0.00000E+000	-1.48024E-001	0.00000E+000	7	...........	0
	363	36.4	-1.37119E-001	9.02188E-008	0.00000E+000	-1.37024E-001	0.00000E+000	7	...........	0
	374	37.5	-1.26088E-001	1.12892E-007	0.00000E+000	-1.26023E-001	0.00000E+000	7	...........	0
	385	38.6	-1.15107E-001	1.19560E-007	0.00000E+000	-1.15023E-001	0.00000E+000	7	...........	0
	396	39.7	-1.04106E-001	6.95465E-008	0.00000E+000	-1.04022E-001	0.00000E+000	7	...........	0
	407	40.8	-9.30950E-002	6.28780E-008	0.00000E+000	-9.30219E-002	0.00000E+000	7	...........	0
	418	41.9	-8.20941E-002	7.98827E-008	0.00000E+000	-8.20214E-002	0.00000E+000	7	...........	0
	429	43	-7.10931E-002	1.05223E-007	0.00000E+000	-7.10210E-002	0.00000E+000	7	...........	0
	440	44.1	-6.00822E-002	6.22111E-008	0.00000E+000	-6.00205E-002	0.00000E+000	7	...........	0
	451	45.2	-4.91013E-002	7.58816E-008	0.00000E+000	-4.90201E-002	0.00000E+000	7	...........	0
	462	46.3	-3.80903E-002	4.82073E-008	0.00000E+000	-3.80196E-002	0.00000E+000	7	...........	0
	473	47.4	-2.70793E-002	7.88824E-008	0.00000E+000	-2.70192E-002	0.00000E+000	7	...........	0
	484	48.5	-1.60832E-002	1.14559E-007	0.00000E+000	-1.60187E-002	0.00000E+000	7	...........	0
	495	49.6	-5.08821E-003	1.05890E-007	0.00000E+000	-5.01826E-003	0.00000E+000	7	...........	0
	506	50.7	5.91274E-003	4.75405E-008	0.00000E+000	5.98219E-003	0.00000E+000	7	...........	0
	517	51.8	1.68967E-002	6.22111E-008	0.00000E+000	1.69826E-002	0.00000E+000	7	...........	0
	528	52.9	2.79354E-002	5.52092E-008	0.00000E+000	2.79831E-002	0.00000E+000	7	...........	0
	539	54	3.89364E-002	5.48758E-008	0.00000E+000	3.89835E-002	0.00000E+000	7	...........	0
	550	55.1	4.99273E-002	6.95465E-008	0.00000E+000	4.99840E-002	0.00000E+000	7	...........	0
	561	56.2	6.09383E-002	1.39232E-007	0.00000E+000	6.09844E-002	0.00000E+000	7	...........	0
	572	57.3	7.19392E-002	7.45479E-008	0.00000E+000	7.19849E-002	0.00000E+000	7	...........	0
	583	58.4	8.29202E-002	7.85490E-008	0.00000E+000	8.29853E-002	0.00000E+000	7	...........	0
	594	59.5	9.39411E-002	9.35531E-008	0.00000E+000	9.39858E-002	0.00000E+000	7	...........	0
	605	60.6	1.04952E-001	1.66573E-007	0.00000E+000	1.04986E-001	0.00000E+000	7	...........	0
	616	61.7	1.15943E-001	1.36232E-007	0.00000E+000	1.15987E-001	0.00000E+000	7	...........	0
	627	62.8	1.26944E-001	1.56237E-007	0.00000E+000	1.26987E-001	0.00000E+000	7	...........	0
	638	63.9	1.37925E-001	1.22894E-007	0.00000E+000	1.37988E-001	0.00000E+000	7	...........	0
	649	65	1.48946E-001	1.67240E-007	0.00000E+000	1.48988E-001	0.00000E+000	7	...........	0
	660	66.1	1.59957E-001	9.38865E-008	0.00000E+000	1.59988E-001	0.00000E+000	7	...........	0
	671	67.2	1.70928E-001	2.75350E-008	0.00000E+000	1.70989E-001	0.00000E+000	7	...........	0
	682	68.3	1.81939E-001	7.95492E-008	0.00000E+000	1.81989E-001	0.00000E+000	7	...........	0
	693	69.4	1.92940E-001	1.09891E-007	0.00000E+000	1.92990E-001	0.00000E+000	7	...........	0
	704	70.5	2.03951E-001	5.72098E-008	0.00000E+000	2.03990E-001	0.00000E+000	7	...........	0
	715	71.6	2.14942E-001	7.75487E-008	0.00000E+000	2.14991E-001	0.00000E+000	7	...........	0
	726	72.7	2.25953E-001	1.40566E-007	0.00000E+000	2.25991E-001	0.00000E+000	7	...........	0
	737	73.8	2.36933E-001	9.45534E-008	0.00000E+000	2.36992E-001	0.00000E+000	7	...........	0
	748	74.9	2.47934E-001	9.55536E-008	0.00000E+000	2.47992E-001	0.00000E+000	7	...........	0
	759	76	2.58905E-001	1.48235E-007	0.00000E+000	2.58993E-001	0.00000E+000	7	...........	0
	770	77.1	2.70357E-001	1.76242E-007	0.00000E+000	2.69993E-001	0.00000E+000	7	...........	0
	781	78.2	2.81268E-001	8.78849E-008	0.00000E+000	2.80993E-001	0.00000E+000	7	...........	0
	792	79.3	2.92279E-001	1.17560E-007	0.00000E+000	2.91994E-001	0.00000E+000	7	...........	0
	803	80.4	3.03390E-001	1.35565E-007	0.00000E+000	3.02994E-001	0.00000E+000	7	...........	0
	814	81.5	3.14301E-001	7.52147E-008	0.00000E+000	3.13995E-001	0.00000E+000	7	...........	0
	825	82.6	3.25312E-001	5.85435E-008	0.00000E+000	3.24995E-001	0.00000E+000	7	...........	0
	836	83.7	3.36323E-001	5.95438E-008	0.00000E+000	3.35996E-001	0.00000E+000	7	...........	0
	847	84.8	3.47334E-001	1.11558E-007	0.00000E+000	3.46996E-001	0.00000E+000	7	...........	0
	858	85.9	3.58245E-001	1.99916E-007	0.00000E+000	3.57997E-001	0.00000E+000	7	...........	0
	869	87	3.69356E-001	2.07251E-007	0.00000E+000	3.68997E-001	0.00000E+000	7	...........	0
	880	88.1	3.80367E-001	9.62205E-008	0.00000E+000	3.79997E-001	0.00000E+000	7	...........	0
	891	89.2	3.91378E-001	5.58761E-008	0.00000E+000	3.90998E-001	0.00000E+000	7	...........	0
	902	90.3	4.02389E-001	1.01222E-007	0.00000E+000	4.01998E-001	0.00000E+000	7	...........	0
	913	91.4	4.13299E-001	8.05495E-008	0.00000E+000	4.12999E-001	0.00000E+000	7	...........	0
	924	92.5	4.24310E-001	1.98249E-007	0.00000E+000	4.23999E-001	0.00000E+000	7	...........	0
	935	93.6	4.35321E-001	2.04584E-007	0.00000E+000	4.35000E-001	0.00000E+000	7	...........	0
	946	94.7	4.46332E-001	1.72575E-007	0.00000E+000	4.46000E-001	0.00000E+000	7	...........	0
	957	95.8	4.57343E-001	2.19254E-007	0.00000E+000	4.57001E-001	0.00000E+000	7	...........	0
	968	96.9	4.68354E-001	2.28257E-007	0.00000E+000	4.68001E-001	0.00000E+000	7	...........	0
	979	98	4.79365E-001	1.58904E-007	0.00000E+000	4.79002E-001	0.00000E+000	7	...........	0
	990	99.1	4.90376E-001	1.95581E-007	0.00000E+000	4.90002E-001	0.00000E+000	7	...........	0
	1001	100.2	5.01387E-001	2.39260E-007	0.00000E+000	5.01002E-001	0.00000E+000	7	...........	0
	1012	101.3	5.12298E-001	2.13919E-007	0.00000E+000	5.12003E-001	0.00000E+000	7	...........	0
	1023	102.4	5.23309E-001	3.17948E-007	0.00000E+000	5.23003E-001	0.00000E+000	7	...........	0
	1034	103.5	5.34420E-001	4.46650E-007	0.00000E+000	5.34004E-001	0.00000E+000	7	...........	0
	1045	104.6	5.45431E-001	4.41649E-007	0.00000E+000	5.45004E-001	0.00000E+000	7	...........	0
	1056	105.7	5.56342E-001	4.04972E-007	0.00000E+000	5.56005E-001	0.00000E+000	7	...........	0
	1067	106.8	5.67353E-001	4.66656E-007	0.00000E+000	5.67005E-001	0.00000E+000	7	...........	0
	1078	107.9	5.78464E-001	5.75019E-007	0.00000E+000	5.78006E-001	0.00000E+000	7	...........	0
	1089	109	5.89375E-001	7.59403E-007	0.00000E+000	5.89006E-001	0.00000E+000	7	...........	0
	1100	110.1	6.00286E-001	8.67432E-007	0.00000E+000	6.00006E-001	0.00000E+000	7	...........	0